SpectraSuite Data File
++++++++++++++++++++++++++++++++++++
Date: Mon Oct 13 14:50:35 PDT 2014
User: ugastro
Dark Spectrum Present: No
Reference Spectrum Present: No
Number of Sampled Component Spectra: 1
Spectrometers: USB2G5981
Integration Time (usec): 100000 (USB2G5981)
Spectra Averaged: 1 (USB2G5981)
Boxcar Smoothing: 0 (USB2G5981)
Correct for Electrical Dark: No (USB2G5981)
Strobe/Lamp Enabled: No (USB2G5981)
Correct for Detector Non-linearity: No (USB2G5981)
Correct for Stray Light: No (USB2G5981)
Number of Pixels in Processed Spectrum: 2048
>>>>>Begin Processed Spectral Data<<<<<
344.31	0.00
344.51	98.00
344.71	100.00
344.90	101.00
345.10	104.00
345.30	107.00
345.50	108.00
345.69	107.00
345.89	109.00
346.09	109.00
346.28	109.00
346.48	109.00
346.68	110.00
346.88	107.00
347.07	109.00
347.27	107.00
347.47	107.00
347.66	110.00
347.86	110.00
348.06	110.00
348.25	109.00
348.45	111.00
348.65	110.00
348.85	111.00
349.04	113.00
349.24	112.00
349.44	113.00
349.63	109.00
349.83	111.00
350.02	112.00
350.22	113.00
350.42	112.00
350.61	113.00
350.81	114.00
351.01	112.00
351.20	113.00
351.40	112.00
351.60	113.00
351.79	114.00
351.99	113.00
352.19	113.00
352.38	110.00
352.58	106.00
352.77	105.00
352.97	109.00
353.17	110.00
353.36	114.00
353.56	115.00
353.75	112.00
353.95	111.00
354.15	111.00
354.34	114.00
354.54	112.00
354.73	111.00
354.93	112.00
355.13	111.00
355.32	110.00
355.52	109.00
355.71	109.00
355.91	109.00
356.10	111.00
356.30	109.00
356.50	111.00
356.69	113.00
356.89	114.00
357.08	112.00
357.28	115.00
357.47	112.00
357.67	115.00
357.86	114.00
358.06	113.00
358.25	113.00
358.45	110.00
358.65	111.00
358.84	113.00
359.04	114.00
359.23	115.00
359.43	113.00
359.62	113.00
359.82	109.00
360.01	111.00
360.21	113.00
360.40	113.00
360.60	113.00
360.79	114.00
360.99	114.00
361.18	112.00
361.38	111.00
361.57	111.00
361.77	111.00
361.96	113.00
362.16	115.00
362.35	116.00
362.54	115.00
362.74	113.00
362.93	113.00
363.13	113.00
363.32	114.00
363.52	116.00
363.71	113.00
363.91	114.00
364.10	115.00
364.30	119.00
364.49	116.00
364.68	113.00
364.88	112.00
365.07	114.00
365.27	116.00
365.46	115.00
365.66	113.00
365.85	113.00
366.04	114.00
366.24	115.00
366.43	112.00
366.63	112.00
366.82	115.00
367.01	118.00
367.21	116.00
367.40	114.00
367.60	115.00
367.79	114.00
367.98	111.00
368.18	113.00
368.37	112.00
368.56	114.00
368.76	112.00
368.95	113.00
369.15	116.00
369.34	116.00
369.53	115.00
369.73	116.00
369.92	117.00
370.11	112.00
370.31	110.00
370.50	115.00
370.69	116.00
370.89	114.00
371.08	116.00
371.27	117.00
371.47	114.00
371.66	114.00
371.85	112.00
372.05	111.00
372.24	112.00
372.43	114.00
372.63	113.00
372.82	113.00
373.01	114.00
373.21	114.00
373.40	112.00
373.59	112.00
373.78	114.00
373.98	115.00
374.17	117.00
374.36	115.00
374.56	113.00
374.75	115.00
374.94	115.00
375.13	115.00
375.33	116.00
375.52	114.00
375.71	114.00
375.91	116.00
376.10	113.00
376.29	116.00
376.48	116.00
376.68	113.00
376.87	112.00
377.06	115.00
377.25	112.00
377.45	112.00
377.64	114.00
377.83	114.00
378.02	114.00
378.21	115.00
378.41	118.00
378.60	117.00
378.79	115.00
378.98	113.00
379.18	114.00
379.37	114.00
379.56	112.00
379.75	111.00
379.94	114.00
380.14	116.00
380.33	115.00
380.52	115.00
380.71	117.00
380.90	116.00
381.09	113.00
381.29	113.00
381.48	114.00
381.67	114.00
381.86	117.00
382.05	118.00
382.25	121.00
382.44	117.00
382.63	116.00
382.82	117.00
383.01	115.00
383.20	113.00
383.39	113.00
383.59	111.00
383.78	110.00
383.97	113.00
384.16	113.00
384.35	112.00
384.54	113.00
384.73	117.00
384.92	117.00
385.12	117.00
385.31	117.00
385.50	116.00
385.69	116.00
385.88	114.00
386.07	115.00
386.26	112.00
386.45	113.00
386.64	115.00
386.84	115.00
387.03	116.00
387.22	114.00
387.41	112.00
387.60	115.00
387.79	114.00
387.98	114.00
388.17	118.00
388.36	116.00
388.55	118.00
388.74	118.00
388.93	115.00
389.12	114.00
389.31	114.00
389.51	114.00
389.70	116.00
389.89	116.00
390.08	117.00
390.27	115.00
390.46	115.00
390.65	112.00
390.84	113.00
391.03	113.00
391.22	115.00
391.41	116.00
391.60	116.00
391.79	114.00
391.98	118.00
392.17	118.00
392.36	117.00
392.55	112.00
392.74	113.00
392.93	113.00
393.12	113.00
393.31	114.00
393.50	117.00
393.69	116.00
393.88	112.00
394.07	114.00
394.26	114.00
394.45	114.00
394.64	114.00
394.83	114.00
395.02	115.00
395.21	113.00
395.40	115.00
395.59	116.00
395.77	114.00
395.96	111.00
396.15	114.00
396.34	117.00
396.53	115.00
396.72	115.00
396.91	115.00
397.10	117.00
397.29	113.00
397.48	113.00
397.67	116.00
397.86	113.00
398.05	114.00
398.24	115.00
398.43	115.00
398.61	117.00
398.80	115.00
398.99	114.00
399.18	116.00
399.37	118.00
399.56	116.00
399.75	117.00
399.94	116.00
400.13	120.00
400.31	120.00
400.50	118.00
400.69	123.00
400.88	121.00
401.07	116.00
401.26	114.00
401.45	113.00
401.64	116.00
401.82	117.00
402.01	114.00
402.20	115.00
402.39	116.00
402.58	115.00
402.77	114.00
402.95	118.00
403.14	115.00
403.33	114.00
403.52	113.00
403.71	113.00
403.90	112.00
404.08	117.00
404.27	115.00
404.46	117.00
404.65	114.00
404.84	114.00
405.02	116.00
405.21	115.00
405.40	115.00
405.59	112.00
405.78	111.00
405.96	112.00
406.15	114.00
406.34	117.00
406.53	113.00
406.72	112.00
406.90	114.00
407.09	116.00
407.28	114.00
407.47	118.00
407.65	115.00
407.84	117.00
408.03	117.00
408.22	118.00
408.40	115.00
408.59	115.00
408.78	116.00
408.97	116.00
409.15	117.00
409.34	116.00
409.53	113.00
409.72	113.00
409.90	115.00
410.09	114.00
410.28	116.00
410.47	114.00
410.65	115.00
410.84	116.00
411.03	116.00
411.21	116.00
411.40	113.00
411.59	114.00
411.78	110.00
411.96	110.00
412.15	111.00
412.34	111.00
412.52	113.00
412.71	114.00
412.90	112.00
413.08	113.00
413.27	114.00
413.46	114.00
413.64	114.00
413.83	115.00
414.02	114.00
414.20	114.00
414.39	115.00
414.58	115.00
414.76	116.00
414.95	116.00
415.14	113.00
415.32	113.00
415.51	113.00
415.69	111.00
415.88	113.00
416.07	114.00
416.25	113.00
416.44	114.00
416.63	113.00
416.81	113.00
417.00	111.00
417.18	112.00
417.37	115.00
417.56	115.00
417.74	114.00
417.93	114.00
418.11	113.00
418.30	112.00
418.49	110.00
418.67	114.00
418.86	114.00
419.04	116.00
419.23	115.00
419.42	115.00
419.60	116.00
419.79	115.00
419.97	116.00
420.16	117.00
420.34	115.00
420.53	114.00
420.72	113.00
420.90	116.00
421.09	114.00
421.27	112.00
421.46	112.00
421.64	114.00
421.83	117.00
422.01	116.00
422.20	115.00
422.38	117.00
422.57	114.00
422.75	111.00
422.94	113.00
423.12	112.00
423.31	115.00
423.49	116.00
423.68	112.00
423.86	111.00
424.05	114.00
424.23	112.00
424.42	113.00
424.60	114.00
424.79	114.00
424.97	115.00
425.16	112.00
425.34	112.00
425.53	113.00
425.71	114.00
425.90	114.00
426.08	113.00
426.27	114.00
426.45	114.00
426.64	111.00
426.82	112.00
427.01	112.00
427.19	115.00
427.38	118.00
427.56	112.00
427.74	114.00
427.93	113.00
428.11	112.00
428.30	117.00
428.48	120.00
428.67	116.00
428.85	111.00
429.03	109.00
429.22	113.00
429.40	115.00
429.59	112.00
429.77	112.00
429.95	112.00
430.14	112.00
430.32	112.00
430.51	114.00
430.69	113.00
430.87	112.00
431.06	114.00
431.24	113.00
431.43	114.00
431.61	114.00
431.79	114.00
431.98	114.00
432.16	114.00
432.34	113.00
432.53	109.00
432.71	110.00
432.90	112.00
433.08	113.00
433.26	117.00
433.45	116.00
433.63	114.00
433.81	117.00
434.00	118.00
434.18	116.00
434.36	115.00
434.55	116.00
434.73	116.00
434.91	112.00
435.10	110.00
435.28	115.00
435.46	118.00
435.65	115.00
435.83	114.00
436.01	114.00
436.20	115.00
436.38	115.00
436.56	116.00
436.74	117.00
436.93	113.00
437.11	112.00
437.29	114.00
437.48	115.00
437.66	113.00
437.84	112.00
438.02	115.00
438.21	114.00
438.39	111.00
438.57	111.00
438.75	115.00
438.94	114.00
439.12	114.00
439.30	114.00
439.48	113.00
439.67	112.00
439.85	114.00
440.03	114.00
440.21	115.00
440.40	113.00
440.58	113.00
440.76	116.00
440.94	116.00
441.13	115.00
441.31	114.00
441.49	114.00
441.67	115.00
441.85	116.00
442.04	114.00
442.22	111.00
442.40	116.00
442.58	113.00
442.76	118.00
442.95	118.00
443.13	117.00
443.31	114.00
443.49	114.00
443.67	112.00
443.86	112.00
444.04	115.00
444.22	116.00
444.40	110.00
444.58	110.00
444.76	112.00
444.95	114.00
445.13	114.00
445.31	114.00
445.49	107.00
445.67	110.00
445.85	113.00
446.04	113.00
446.22	115.00
446.40	114.00
446.58	110.00
446.76	111.00
446.94	112.00
447.12	112.00
447.30	114.00
447.49	113.00
447.67	113.00
447.85	117.00
448.03	114.00
448.21	115.00
448.39	113.00
448.57	112.00
448.75	114.00
448.93	112.00
449.12	114.00
449.30	117.00
449.48	114.00
449.66	113.00
449.84	114.00
450.02	114.00
450.20	114.00
450.38	119.00
450.56	115.00
450.74	112.00
450.92	111.00
451.10	110.00
451.28	111.00
451.46	113.00
451.64	113.00
451.83	111.00
452.01	111.00
452.19	114.00
452.37	113.00
452.55	112.00
452.73	114.00
452.91	113.00
453.09	112.00
453.27	111.00
453.45	109.00
453.63	115.00
453.81	114.00
453.99	115.00
454.17	114.00
454.35	113.00
454.53	113.00
454.71	115.00
454.89	118.00
455.07	116.00
455.25	114.00
455.43	113.00
455.61	114.00
455.79	114.00
455.97	114.00
456.15	111.00
456.33	113.00
456.51	112.00
456.69	115.00
456.87	114.00
457.05	114.00
457.23	113.00
457.41	115.00
457.59	116.00
457.76	117.00
457.94	113.00
458.12	113.00
458.30	114.00
458.48	114.00
458.66	111.00
458.84	114.00
459.02	114.00
459.20	114.00
459.38	114.00
459.56	113.00
459.74	113.00
459.92	115.00
460.10	113.00
460.27	110.00
460.45	112.00
460.63	111.00
460.81	113.00
460.99	111.00
461.17	109.00
461.35	110.00
461.53	112.00
461.71	115.00
461.88	113.00
462.06	115.00
462.24	114.00
462.42	117.00
462.60	115.00
462.78	114.00
462.96	113.00
463.14	115.00
463.31	114.00
463.49	113.00
463.67	112.00
463.85	108.00
464.03	109.00
464.21	112.00
464.38	114.00
464.56	113.00
464.74	117.00
464.92	116.00
465.10	112.00
465.28	113.00
465.45	115.00
465.63	115.00
465.81	115.00
465.99	114.00
466.17	114.00
466.35	113.00
466.52	115.00
466.70	113.00
466.88	113.00
467.06	116.00
467.24	112.00
467.41	112.00
467.59	114.00
467.77	116.00
467.95	114.00
468.12	115.00
468.30	115.00
468.48	113.00
468.66	112.00
468.84	112.00
469.01	113.00
469.19	111.00
469.37	111.00
469.55	112.00
469.72	110.00
469.90	111.00
470.08	110.00
470.26	112.00
470.43	113.00
470.61	111.00
470.79	108.00
470.96	112.00
471.14	113.00
471.32	113.00
471.50	113.00
471.67	115.00
471.85	113.00
472.03	115.00
472.20	113.00
472.38	116.00
472.56	115.00
472.74	114.00
472.91	111.00
473.09	112.00
473.27	113.00
473.44	113.00
473.62	112.00
473.80	115.00
473.97	113.00
474.15	115.00
474.33	113.00
474.50	112.00
474.68	110.00
474.86	110.00
475.03	113.00
475.21	114.00
475.39	116.00
475.56	116.00
475.74	115.00
475.92	117.00
476.09	113.00
476.27	112.00
476.45	112.00
476.62	110.00
476.80	110.00
476.97	111.00
477.15	108.00
477.33	111.00
477.50	113.00
477.68	112.00
477.86	113.00
478.03	114.00
478.21	114.00
478.38	114.00
478.56	111.00
478.74	115.00
478.91	118.00
479.09	117.00
479.26	116.00
479.44	117.00
479.62	115.00
479.79	115.00
479.97	113.00
480.14	114.00
480.32	114.00
480.49	116.00
480.67	116.00
480.85	114.00
481.02	118.00
481.20	115.00
481.37	113.00
481.55	114.00
481.72	113.00
481.90	110.00
482.07	109.00
482.25	112.00
482.42	114.00
482.60	116.00
482.78	113.00
482.95	113.00
483.13	114.00
483.30	113.00
483.48	114.00
483.65	113.00
483.83	113.00
484.00	114.00
484.18	112.00
484.35	113.00
484.53	117.00
484.70	115.00
484.88	113.00
485.05	117.00
485.23	116.00
485.40	113.00
485.58	114.00
485.75	116.00
485.93	117.00
486.10	114.00
486.27	112.00
486.45	114.00
486.62	113.00
486.80	112.00
486.97	115.00
487.15	116.00
487.32	112.00
487.50	110.00
487.67	112.00
487.85	114.00
488.02	116.00
488.19	116.00
488.37	113.00
488.54	113.00
488.72	114.00
488.89	112.00
489.07	113.00
489.24	112.00
489.41	111.00
489.59	111.00
489.76	113.00
489.94	111.00
490.11	111.00
490.28	113.00
490.46	111.00
490.63	110.00
490.81	112.00
490.98	115.00
491.15	117.00
491.33	115.00
491.50	115.00
491.68	114.00
491.85	111.00
492.02	112.00
492.20	114.00
492.37	114.00
492.54	114.00
492.72	112.00
492.89	109.00
493.06	112.00
493.24	114.00
493.41	116.00
493.58	115.00
493.76	112.00
493.93	110.00
494.10	112.00
494.28	112.00
494.45	114.00
494.62	111.00
494.80	109.00
494.97	113.00
495.14	114.00
495.32	113.00
495.49	112.00
495.66	111.00
495.84	112.00
496.01	113.00
496.18	114.00
496.36	114.00
496.53	113.00
496.70	113.00
496.87	115.00
497.05	113.00
497.22	112.00
497.39	110.00
497.57	109.00
497.74	110.00
497.91	115.00
498.08	114.00
498.26	114.00
498.43	112.00
498.60	110.00
498.77	112.00
498.95	115.00
499.12	114.00
499.29	113.00
499.46	112.00
499.64	113.00
499.81	112.00
499.98	110.00
500.15	111.00
500.33	111.00
500.50	112.00
500.67	109.00
500.84	110.00
501.01	113.00
501.19	115.00
501.36	111.00
501.53	111.00
501.70	112.00
501.87	112.00
502.05	113.00
502.22	112.00
502.39	111.00
502.56	111.00
502.73	114.00
502.91	111.00
503.08	115.00
503.25	115.00
503.42	115.00
503.59	112.00
503.77	113.00
503.94	116.00
504.11	117.00
504.28	113.00
504.45	111.00
504.62	111.00
504.79	113.00
504.97	110.00
505.14	111.00
505.31	110.00
505.48	111.00
505.65	111.00
505.82	114.00
505.99	115.00
506.17	112.00
506.34	112.00
506.51	111.00
506.68	114.00
506.85	112.00
507.02	111.00
507.19	111.00
507.36	113.00
507.53	115.00
507.71	112.00
507.88	112.00
508.05	112.00
508.22	117.00
508.39	121.00
508.56	114.00
508.73	113.00
508.90	113.00
509.07	111.00
509.24	113.00
509.41	114.00
509.58	114.00
509.76	115.00
509.93	115.00
510.10	116.00
510.27	114.00
510.44	111.00
510.61	111.00
510.78	114.00
510.95	112.00
511.12	111.00
511.29	114.00
511.46	112.00
511.63	115.00
511.80	114.00
511.97	112.00
512.14	114.00
512.31	114.00
512.48	114.00
512.65	114.00
512.82	115.00
512.99	116.00
513.16	112.00
513.33	113.00
513.50	114.00
513.67	112.00
513.84	111.00
514.01	113.00
514.18	114.00
514.35	114.00
514.52	113.00
514.69	113.00
514.86	114.00
515.03	112.00
515.20	110.00
515.37	113.00
515.54	112.00
515.71	110.00
515.88	109.00
516.05	116.00
516.22	113.00
516.39	111.00
516.56	110.00
516.73	115.00
516.90	118.00
517.06	118.00
517.23	113.00
517.40	113.00
517.57	112.00
517.74	111.00
517.91	110.00
518.08	114.00
518.25	113.00
518.42	112.00
518.59	111.00
518.76	112.00
518.93	111.00
519.09	114.00
519.26	112.00
519.43	111.00
519.60	109.00
519.77	112.00
519.94	112.00
520.11	113.00
520.28	112.00
520.45	113.00
520.61	113.00
520.78	112.00
520.95	112.00
521.12	115.00
521.29	113.00
521.46	111.00
521.63	113.00
521.79	111.00
521.96	110.00
522.13	111.00
522.30	111.00
522.47	112.00
522.64	116.00
522.80	115.00
522.97	115.00
523.14	116.00
523.31	116.00
523.48	115.00
523.65	114.00
523.81	115.00
523.98	115.00
524.15	114.00
524.32	111.00
524.49	112.00
524.65	112.00
524.82	114.00
524.99	113.00
525.16	114.00
525.33	114.00
525.49	112.00
525.66	110.00
525.83	109.00
526.00	110.00
526.17	112.00
526.33	113.00
526.50	110.00
526.67	111.00
526.84	113.00
527.00	113.00
527.17	112.00
527.34	112.00
527.51	111.00
527.67	114.00
527.84	114.00
528.01	113.00
528.18	110.00
528.34	111.00
528.51	110.00
528.68	113.00
528.85	113.00
529.01	112.00
529.18	110.00
529.35	110.00
529.51	113.00
529.68	114.00
529.85	115.00
530.02	112.00
530.18	114.00
530.35	115.00
530.52	114.00
530.68	114.00
530.85	114.00
531.02	114.00
531.18	112.00
531.35	111.00
531.52	109.00
531.68	108.00
531.85	112.00
532.02	113.00
532.18	110.00
532.35	112.00
532.52	111.00
532.68	112.00
532.85	115.00
533.02	116.00
533.18	114.00
533.35	115.00
533.52	113.00
533.68	112.00
533.85	111.00
534.02	109.00
534.18	113.00
534.35	112.00
534.51	112.00
534.68	114.00
534.85	111.00
535.01	112.00
535.18	112.00
535.35	112.00
535.51	111.00
535.68	111.00
535.84	112.00
536.01	115.00
536.18	113.00
536.34	112.00
536.51	112.00
536.67	112.00
536.84	113.00
537.00	115.00
537.17	112.00
537.34	112.00
537.50	112.00
537.67	111.00
537.83	114.00
538.00	114.00
538.16	115.00
538.33	116.00
538.50	116.00
538.66	116.00
538.83	118.00
538.99	114.00
539.16	113.00
539.32	113.00
539.49	114.00
539.65	113.00
539.82	114.00
539.98	114.00
540.15	115.00
540.31	114.00
540.48	112.00
540.65	110.00
540.81	113.00
540.98	114.00
541.14	116.00
541.31	114.00
541.47	114.00
541.64	113.00
541.80	111.00
541.97	109.00
542.13	111.00
542.29	111.00
542.46	112.00
542.62	113.00
542.79	115.00
542.95	114.00
543.12	111.00
543.28	110.00
543.45	112.00
543.61	114.00
543.78	113.00
543.94	112.00
544.11	114.00
544.27	112.00
544.44	110.00
544.60	114.00
544.76	115.00
544.93	114.00
545.09	112.00
545.26	112.00
545.42	114.00
545.59	116.00
545.75	116.00
545.91	113.00
546.08	113.00
546.24	114.00
546.41	112.00
546.57	110.00
546.73	111.00
546.90	110.00
547.06	113.00
547.23	111.00
547.39	110.00
547.55	113.00
547.72	115.00
547.88	113.00
548.05	114.00
548.21	114.00
548.37	110.00
548.54	110.00
548.70	111.00
548.86	110.00
549.03	112.00
549.19	112.00
549.36	113.00
549.52	112.00
549.68	112.00
549.85	113.00
550.01	113.00
550.17	112.00
550.34	110.00
550.50	114.00
550.66	115.00
550.83	114.00
550.99	112.00
551.15	112.00
551.32	112.00
551.48	111.00
551.64	112.00
551.81	114.00
551.97	112.00
552.13	110.00
552.29	111.00
552.46	114.00
552.62	114.00
552.78	114.00
552.95	116.00
553.11	113.00
553.27	112.00
553.43	111.00
553.60	109.00
553.76	112.00
553.92	110.00
554.09	112.00
554.25	109.00
554.41	112.00
554.57	115.00
554.74	112.00
554.90	111.00
555.06	113.00
555.22	114.00
555.39	113.00
555.55	112.00
555.71	113.00
555.87	115.00
556.04	114.00
556.20	113.00
556.36	116.00
556.52	114.00
556.69	114.00
556.85	115.00
557.01	115.00
557.17	112.00
557.33	110.00
557.50	111.00
557.66	113.00
557.82	114.00
557.98	114.00
558.14	111.00
558.31	111.00
558.47	110.00
558.63	110.00
558.79	110.00
558.95	110.00
559.12	110.00
559.28	111.00
559.44	112.00
559.60	110.00
559.76	111.00
559.92	112.00
560.09	116.00
560.25	116.00
560.41	115.00
560.57	115.00
560.73	117.00
560.89	115.00
561.05	115.00
561.22	113.00
561.38	112.00
561.54	113.00
561.70	114.00
561.86	114.00
562.02	111.00
562.18	110.00
562.34	113.00
562.51	113.00
562.67	111.00
562.83	112.00
562.99	112.00
563.15	113.00
563.31	118.00
563.47	114.00
563.63	112.00
563.79	109.00
563.95	112.00
564.12	110.00
564.28	110.00
564.44	115.00
564.60	112.00
564.76	110.00
564.92	109.00
565.08	111.00
565.24	112.00
565.40	114.00
565.56	112.00
565.72	110.00
565.88	115.00
566.04	112.00
566.20	111.00
566.36	112.00
566.52	110.00
566.69	110.00
566.85	112.00
567.01	116.00
567.17	118.00
567.33	114.00
567.49	111.00
567.65	110.00
567.81	109.00
567.97	110.00
568.13	112.00
568.29	112.00
568.45	114.00
568.61	115.00
568.77	113.00
568.93	113.00
569.09	110.00
569.25	113.00
569.41	113.00
569.57	115.00
569.73	113.00
569.89	113.00
570.05	115.00
570.21	116.00
570.37	115.00
570.53	116.00
570.68	114.00
570.84	117.00
571.00	115.00
571.16	112.00
571.32	112.00
571.48	114.00
571.64	114.00
571.80	112.00
571.96	107.00
572.12	108.00
572.28	110.00
572.44	110.00
572.60	112.00
572.76	113.00
572.92	112.00
573.08	112.00
573.23	112.00
573.39	111.00
573.55	110.00
573.71	113.00
573.87	114.00
574.03	113.00
574.19	114.00
574.35	114.00
574.51	114.00
574.67	112.00
574.82	112.00
574.98	113.00
575.14	116.00
575.30	116.00
575.46	114.00
575.62	114.00
575.78	114.00
575.94	112.00
576.09	113.00
576.25	109.00
576.41	110.00
576.57	112.00
576.73	113.00
576.89	110.00
577.05	106.00
577.20	108.00
577.36	111.00
577.52	112.00
577.68	113.00
577.84	112.00
578.00	116.00
578.15	113.00
578.31	114.00
578.47	113.00
578.63	111.00
578.79	112.00
578.94	114.00
579.10	110.00
579.26	110.00
579.42	110.00
579.58	110.00
579.73	113.00
579.89	112.00
580.05	112.00
580.21	112.00
580.37	109.00
580.52	110.00
580.68	110.00
580.84	111.00
581.00	113.00
581.15	111.00
581.31	110.00
581.47	111.00
581.63	112.00
581.78	112.00
581.94	112.00
582.10	115.00
582.26	114.00
582.41	109.00
582.57	109.00
582.73	111.00
582.89	111.00
583.04	111.00
583.20	111.00
583.36	110.00
583.52	111.00
583.67	112.00
583.83	115.00
583.99	116.00
584.14	114.00
584.30	110.00
584.46	110.00
584.62	111.00
584.77	113.00
584.93	112.00
585.09	114.00
585.24	113.00
585.40	113.00
585.56	112.00
585.71	111.00
585.87	111.00
586.03	110.00
586.18	113.00
586.34	112.00
586.50	112.00
586.65	112.00
586.81	112.00
586.97	113.00
587.12	113.00
587.28	114.00
587.44	114.00
587.59	111.00
587.75	110.00
587.91	111.00
588.06	110.00
588.22	111.00
588.37	114.00
588.53	111.00
588.69	111.00
588.84	111.00
589.00	111.00
589.16	109.00
