SpectraSuite Data File
++++++++++++++++++++++++++++++++++++
Date: Wed Oct 01 14:30:29 PDT 2014
User: ugastro
Dark Spectrum Present: No
Reference Spectrum Present: No
Number of Sampled Component Spectra: 1
Spectrometers: USB2G5981
Integration Time (usec): 3000 (USB2G5981)
Spectra Averaged: 1 (USB2G5981)
Boxcar Smoothing: 0 (USB2G5981)
Correct for Electrical Dark: No (USB2G5981)
Strobe/Lamp Enabled: No (USB2G5981)
Correct for Detector Non-linearity: No (USB2G5981)
Correct for Stray Light: No (USB2G5981)
Number of Pixels in Processed Spectrum: 2048
>>>>>Begin Processed Spectral Data<<<<<
0.00	0.00
1.00	120.00
2.00	123.00
3.00	120.00
4.00	120.00
5.00	123.00
6.00	125.00
7.00	125.00
8.00	127.00
9.00	128.00
10.00	127.00
11.00	130.00
12.00	132.00
13.00	132.00
14.00	131.00
15.00	132.00
16.00	131.00
17.00	130.00
18.00	132.00
19.00	130.00
20.00	128.00
21.00	130.00
22.00	130.00
23.00	130.00
24.00	134.00
25.00	135.00
26.00	134.00
27.00	134.00
28.00	136.00
29.00	134.00
30.00	130.00
31.00	135.00
32.00	135.00
33.00	133.00
34.00	137.00
35.00	136.00
36.00	136.00
37.00	139.00
38.00	136.00
39.00	136.00
40.00	134.00
41.00	139.00
42.00	138.00
43.00	137.00
44.00	138.00
45.00	137.00
46.00	140.00
47.00	138.00
48.00	136.00
49.00	138.00
50.00	140.00
51.00	135.00
52.00	137.00
53.00	137.00
54.00	138.00
55.00	140.00
56.00	139.00
57.00	139.00
58.00	139.00
59.00	133.00
60.00	140.00
61.00	141.00
62.00	142.00
63.00	138.00
64.00	138.00
65.00	142.00
66.00	140.00
67.00	142.00
68.00	141.00
69.00	143.00
70.00	137.00
71.00	142.00
72.00	143.00
73.00	142.00
74.00	144.00
75.00	143.00
76.00	152.00
77.00	150.00
78.00	149.00
79.00	146.00
80.00	146.00
81.00	145.00
82.00	150.00
83.00	153.00
84.00	151.00
85.00	152.00
86.00	157.00
87.00	155.00
88.00	157.00
89.00	154.00
90.00	158.00
91.00	164.00
92.00	163.00
93.00	161.00
94.00	165.00
95.00	162.00
96.00	167.00
97.00	162.00
98.00	169.00
99.00	173.00
100.00	166.00
101.00	177.00
102.00	171.00
103.00	177.00
104.00	178.00
105.00	186.00
106.00	180.00
107.00	192.00
108.00	192.00
109.00	205.00
110.00	202.00
111.00	210.00
112.00	209.00
113.00	203.00
114.00	208.00
115.00	214.00
116.00	215.00
117.00	213.00
118.00	219.00
119.00	227.00
120.00	216.00
121.00	218.00
122.00	217.00
123.00	223.00
124.00	223.00
125.00	234.00
126.00	236.00
127.00	251.00
128.00	251.00
129.00	254.00
130.00	260.00
131.00	277.00
132.00	269.00
133.00	255.00
134.00	248.00
135.00	248.00
136.00	261.00
137.00	281.00
138.00	297.00
139.00	296.00
140.00	291.00
141.00	272.00
142.00	254.00
143.00	274.00
144.00	302.00
145.00	304.00
146.00	312.00
147.00	299.00
148.00	280.00
149.00	267.00
150.00	273.00
151.00	299.00
152.00	323.00
153.00	330.00
154.00	307.00
155.00	304.00
156.00	298.00
157.00	310.00
158.00	349.00
159.00	394.00
160.00	406.00
161.00	401.00
162.00	367.00
163.00	391.00
164.00	405.00
165.00	404.00
166.00	406.00
167.00	414.00
168.00	440.00
169.00	447.00
170.00	491.00
171.00	509.00
172.00	526.00
173.00	524.00
174.00	543.00
175.00	526.00
176.00	502.00
177.00	468.00
178.00	473.00
179.00	469.00
180.00	462.00
181.00	465.00
182.00	453.00
183.00	455.00
184.00	489.00
185.00	544.00
186.00	546.00
187.00	542.00
188.00	552.00
189.00	539.00
190.00	528.00
191.00	485.00
192.00	456.00
193.00	458.00
194.00	434.00
195.00	436.00
196.00	425.00
197.00	393.00
198.00	382.00
199.00	396.00
200.00	384.00
201.00	394.00
202.00	393.00
203.00	389.00
204.00	403.00
205.00	430.00
206.00	491.00
207.00	519.00
208.00	532.00
209.00	524.00
210.00	521.00
211.00	530.00
212.00	506.00
213.00	475.00
214.00	456.00
215.00	478.00
216.00	501.00
217.00	552.00
218.00	557.00
219.00	545.00
220.00	516.00
221.00	502.00
222.00	518.00
223.00	564.00
224.00	546.00
225.00	533.00
226.00	526.00
227.00	533.00
228.00	538.00
229.00	549.00
230.00	555.00
231.00	593.00
232.00	660.00
233.00	673.00
234.00	674.00
235.00	691.00
236.00	696.00
237.00	684.00
238.00	654.00
239.00	695.00
240.00	721.00
241.00	789.00
242.00	798.00
243.00	794.00
244.00	795.00
245.00	788.00
246.00	738.00
247.00	713.00
248.00	698.00
249.00	693.00
250.00	626.00
251.00	545.00
252.00	455.00
253.00	404.00
254.00	391.00
255.00	446.00
256.00	542.00
257.00	638.00
258.00	693.00
259.00	729.00
260.00	831.00
261.00	842.00
262.00	911.00
263.00	953.00
264.00	983.00
265.00	971.00
266.00	986.00
267.00	913.00
268.00	870.00
269.00	754.00
270.00	662.00
271.00	566.00
272.00	506.00
273.00	528.00
274.00	651.00
275.00	817.00
276.00	951.00
277.00	1040.00
278.00	1194.00
279.00	1211.00
280.00	1231.00
281.00	1232.00
282.00	1288.00
283.00	1273.00
284.00	1418.00
285.00	1391.00
286.00	1361.00
287.00	1376.00
288.00	1378.00
289.00	1392.00
290.00	1475.00
291.00	1433.00
292.00	1386.00
293.00	1441.00
294.00	1475.00
295.00	1476.00
296.00	1480.00
297.00	1506.00
298.00	1437.00
299.00	1481.00
300.00	1508.00
301.00	1510.00
302.00	1554.00
303.00	1504.00
304.00	1470.00
305.00	1455.00
306.00	1381.00
307.00	1369.00
308.00	1468.00
309.00	1506.00
310.00	1557.00
311.00	1455.00
312.00	1409.00
313.00	1311.00
314.00	1342.00
315.00	1373.00
316.00	1535.00
317.00	1524.00
318.00	1469.00
319.00	1364.00
320.00	1375.00
321.00	1362.00
322.00	1336.00
323.00	1306.00
324.00	1333.00
325.00	1344.00
326.00	1410.00
327.00	1435.00
328.00	1374.00
329.00	1413.00
330.00	1350.00
331.00	1396.00
332.00	1474.00
333.00	1461.00
334.00	1492.00
335.00	1509.00
336.00	1544.00
337.00	1629.00
338.00	1546.00
339.00	1574.00
340.00	1447.00
341.00	1409.00
342.00	1343.00
343.00	1321.00
344.00	1307.00
345.00	1387.00
346.00	1500.00
347.00	1490.00
348.00	1556.00
349.00	1630.00
350.00	1678.00
351.00	1723.00
352.00	1737.00
353.00	1649.00
354.00	1668.00
355.00	1686.00
356.00	1653.00
357.00	1671.00
358.00	1622.00
359.00	1666.00
360.00	1654.00
361.00	1689.00
362.00	1729.00
363.00	1800.00
364.00	1765.00
365.00	1782.00
366.00	1706.00
367.00	1769.00
368.00	1806.00
369.00	1821.00
370.00	1833.00
371.00	1801.00
372.00	1834.00
373.00	1866.00
374.00	1892.00
375.00	1937.00
376.00	2054.00
377.00	2045.00
378.00	2028.00
379.00	2011.00
380.00	1911.00
381.00	1942.00
382.00	1881.00
383.00	1985.00
384.00	1949.00
385.00	1988.00
386.00	2051.00
387.00	2034.00
388.00	2018.00
389.00	1990.00
390.00	2014.00
391.00	2152.00
392.00	2240.00
393.00	2207.00
394.00	2116.00
395.00	2033.00
396.00	1991.00
397.00	1976.00
398.00	2207.00
399.00	2159.00
400.00	2299.00
401.00	2450.00
402.00	2427.00
403.00	2441.00
404.00	2315.00
405.00	2281.00
406.00	2389.00
407.00	2376.00
408.00	2251.00
409.00	2182.00
410.00	1979.00
411.00	1938.00
412.00	2249.00
413.00	2285.00
414.00	2265.00
415.00	2262.00
416.00	2221.00
417.00	2225.00
418.00	2228.00
419.00	2303.00
420.00	2444.00
421.00	2343.00
422.00	2252.00
423.00	2116.00
424.00	2202.00
425.00	2210.00
426.00	2282.00
427.00	2159.00
428.00	2195.00
429.00	2198.00
430.00	2236.00
431.00	2302.00
432.00	2287.00
433.00	2179.00
434.00	2062.00
435.00	1957.00
436.00	1907.00
437.00	2090.00
438.00	2128.00
439.00	2208.00
440.00	2096.00
441.00	2101.00
442.00	2121.00
443.00	2048.00
444.00	1943.00
445.00	1988.00
446.00	1994.00
447.00	1997.00
448.00	1948.00
449.00	1816.00
450.00	1670.00
451.00	1581.00
452.00	1552.00
453.00	1535.00
454.00	1500.00
455.00	1482.00
456.00	1587.00
457.00	1754.00
458.00	2032.00
459.00	2125.00
460.00	2316.00
461.00	2326.00
462.00	2243.00
463.00	2077.00
464.00	2033.00
465.00	2046.00
466.00	2196.00
467.00	2292.00
468.00	2410.00
469.00	2383.00
470.00	2186.00
471.00	2042.00
472.00	1931.00
473.00	1940.00
474.00	2085.00
475.00	2243.00
476.00	2267.00
477.00	2478.00
478.00	2308.00
479.00	2290.00
480.00	2362.00
481.00	2417.00
482.00	2429.00
483.00	2510.00
484.00	2536.00
485.00	2638.00
486.00	2664.00
487.00	2624.00
488.00	2616.00
489.00	2560.00
490.00	2468.00
491.00	2606.00
492.00	2524.00
493.00	2528.00
494.00	2503.00
495.00	2423.00
496.00	2272.00
497.00	2330.00
498.00	2363.00
499.00	2455.00
500.00	2538.00
501.00	2608.00
502.00	2668.00
503.00	2709.00
504.00	2720.00
505.00	2695.00
506.00	2657.00
507.00	2668.00
508.00	2661.00
509.00	2754.00
510.00	2803.00
511.00	2940.00
512.00	2990.00
513.00	2951.00
514.00	3004.00
515.00	3089.00
516.00	3155.00
517.00	3142.00
518.00	3144.00
519.00	3122.00
520.00	3255.00
521.00	3242.00
522.00	3170.00
523.00	3104.00
524.00	3031.00
525.00	3150.00
526.00	3222.00
527.00	3415.00
528.00	3213.00
529.00	3270.00
530.00	3346.00
531.00	3355.00
532.00	3341.00
533.00	3237.00
534.00	3420.00
535.00	3088.00
536.00	3222.00
537.00	3169.00
538.00	3247.00
539.00	3201.00
540.00	3284.00
541.00	3410.00
542.00	3373.00
543.00	3348.00
544.00	3317.00
545.00	3384.00
546.00	3625.00
547.00	3687.00
548.00	3515.00
549.00	3475.00
550.00	3346.00
551.00	3595.00
552.00	3505.00
553.00	3450.00
554.00	3420.00
555.00	3436.00
556.00	3517.00
557.00	3647.00
558.00	3510.00
559.00	3515.00
560.00	3519.00
561.00	3704.00
562.00	3634.00
563.00	3618.00
564.00	3718.00
565.00	3673.00
566.00	3618.00
567.00	3684.00
568.00	3470.00
569.00	3606.00
570.00	3270.00
571.00	3510.00
572.00	3571.00
573.00	3456.00
574.00	3135.00
575.00	3156.00
576.00	3120.00
577.00	3056.00
578.00	3046.00
579.00	3137.00
580.00	3129.00
581.00	3341.00
582.00	3335.00
583.00	3310.00
584.00	3310.00
585.00	3277.00
586.00	3083.00
587.00	3112.00
588.00	3110.00
589.00	3290.00
590.00	3214.00
591.00	3078.00
592.00	3207.00
593.00	3291.00
594.00	3297.00
595.00	3230.00
596.00	3217.00
597.00	3098.00
598.00	3249.00
599.00	3281.00
600.00	3311.00
601.00	3208.00
602.00	3294.00
603.00	3282.00
604.00	3221.00
605.00	3027.00
606.00	3027.00
607.00	3077.00
608.00	3022.00
609.00	3033.00
610.00	3210.00
611.00	3022.00
612.00	2998.00
613.00	3071.00
614.00	3043.00
615.00	2995.00
616.00	3081.00
617.00	3110.00
618.00	3036.00
619.00	3230.00
620.00	3218.00
621.00	3165.00
622.00	3158.00
623.00	3034.00
624.00	3095.00
625.00	2991.00
626.00	3041.00
627.00	3134.00
628.00	3248.00
629.00	3039.00
630.00	3003.00
631.00	3075.00
632.00	3052.00
633.00	3097.00
634.00	3098.00
635.00	3204.00
636.00	3157.00
637.00	3146.00
638.00	2999.00
639.00	3016.00
640.00	3116.00
641.00	3110.00
642.00	2931.00
643.00	3021.00
644.00	2972.00
645.00	3147.00
646.00	3106.00
647.00	3180.00
648.00	3245.00
649.00	3198.00
650.00	3218.00
651.00	3340.00
652.00	3123.00
653.00	3021.00
654.00	3048.00
655.00	3068.00
656.00	3232.00
657.00	3223.00
658.00	3255.00
659.00	3229.00
660.00	3275.00
661.00	3245.00
662.00	3191.00
663.00	3305.00
664.00	3297.00
665.00	3298.00
666.00	3483.00
667.00	3448.00
668.00	3375.00
669.00	3425.00
670.00	3403.00
671.00	3438.00
672.00	3522.00
673.00	3360.00
674.00	3263.00
675.00	3330.00
676.00	3404.00
677.00	3415.00
678.00	3484.00
679.00	3633.00
680.00	3568.00
681.00	3629.00
682.00	3922.00
683.00	3841.00
684.00	3760.00
685.00	4000.00
686.00	3824.00
687.00	3742.00
688.00	3792.00
689.00	3860.00
690.00	3936.00
691.00	3783.00
692.00	3886.00
693.00	3863.00
694.00	3921.00
695.00	4095.00
696.00	4027.00
697.00	4095.00
698.00	4016.00
699.00	4095.00
700.00	4028.00
701.00	4059.00
702.00	4095.00
703.00	4086.00
704.00	4095.00
705.00	4095.00
706.00	4081.00
707.00	4016.00
708.00	3990.00
709.00	4076.00
710.00	4095.00
711.00	4095.00
712.00	4095.00
713.00	4095.00
714.00	4095.00
715.00	4095.00
716.00	4095.00
717.00	4095.00
718.00	4095.00
719.00	4095.00
720.00	4095.00
721.00	4095.00
722.00	4095.00
723.00	4095.00
724.00	4095.00
725.00	4095.00
726.00	4095.00
727.00	4095.00
728.00	4095.00
729.00	4095.00
730.00	4095.00
731.00	4095.00
732.00	4095.00
733.00	4095.00
734.00	4095.00
735.00	4095.00
736.00	4095.00
737.00	4095.00
738.00	4095.00
739.00	4095.00
740.00	4095.00
741.00	4095.00
742.00	4095.00
743.00	4095.00
744.00	4095.00
745.00	4095.00
746.00	4095.00
747.00	4095.00
748.00	4095.00
749.00	4095.00
750.00	4095.00
751.00	4095.00
752.00	4095.00
753.00	4095.00
754.00	4095.00
755.00	4095.00
756.00	4095.00
757.00	4095.00
758.00	4095.00
759.00	4095.00
760.00	4095.00
761.00	4095.00
762.00	4095.00
763.00	4095.00
764.00	4095.00
765.00	3858.00
766.00	3933.00
767.00	4091.00
768.00	4025.00
769.00	4095.00
770.00	4095.00
771.00	4095.00
772.00	4095.00
773.00	4095.00
774.00	4095.00
775.00	4095.00
776.00	4095.00
777.00	4095.00
778.00	4095.00
779.00	4095.00
780.00	4095.00
781.00	4095.00
782.00	4095.00
783.00	4095.00
784.00	4095.00
785.00	4095.00
786.00	4095.00
787.00	4095.00
788.00	4095.00
789.00	4095.00
790.00	4095.00
791.00	4095.00
792.00	4095.00
793.00	4095.00
794.00	4095.00
795.00	4095.00
796.00	4095.00
797.00	4095.00
798.00	4095.00
799.00	4095.00
800.00	4095.00
801.00	4095.00
802.00	4095.00
803.00	4095.00
804.00	4095.00
805.00	4095.00
806.00	4095.00
807.00	4095.00
808.00	4095.00
809.00	4095.00
810.00	4095.00
811.00	4095.00
812.00	4095.00
813.00	4095.00
814.00	4095.00
815.00	4095.00
816.00	4095.00
817.00	4095.00
818.00	4095.00
819.00	4095.00
820.00	4095.00
821.00	4095.00
822.00	4095.00
823.00	4095.00
824.00	4095.00
825.00	4095.00
826.00	4095.00
827.00	4095.00
828.00	4095.00
829.00	4095.00
830.00	4095.00
831.00	4095.00
832.00	4095.00
833.00	4095.00
834.00	4095.00
835.00	4095.00
836.00	4095.00
837.00	4095.00
838.00	4095.00
839.00	4095.00
840.00	4095.00
841.00	4095.00
842.00	4095.00
843.00	4095.00
844.00	4095.00
845.00	4095.00
846.00	4095.00
847.00	4095.00
848.00	4095.00
849.00	4095.00
850.00	4095.00
851.00	4095.00
852.00	4095.00
853.00	4095.00
854.00	4095.00
855.00	4095.00
856.00	4095.00
857.00	4095.00
858.00	4095.00
859.00	4095.00
860.00	4095.00
861.00	4095.00
862.00	4095.00
863.00	4095.00
864.00	4095.00
865.00	4095.00
866.00	4095.00
867.00	4095.00
868.00	4095.00
869.00	4095.00
870.00	4095.00
871.00	4095.00
872.00	4095.00
873.00	4095.00
874.00	4095.00
875.00	4095.00
876.00	4095.00
877.00	4095.00
878.00	4095.00
879.00	4095.00
880.00	4095.00
881.00	4095.00
882.00	4095.00
883.00	4095.00
884.00	4095.00
885.00	4095.00
886.00	4095.00
887.00	4095.00
888.00	4095.00
889.00	4095.00
890.00	4095.00
891.00	4095.00
892.00	4095.00
893.00	4095.00
894.00	4095.00
895.00	4095.00
896.00	4095.00
897.00	4095.00
898.00	4095.00
899.00	4095.00
900.00	4095.00
901.00	4095.00
902.00	4095.00
903.00	4095.00
904.00	4095.00
905.00	4095.00
906.00	4095.00
907.00	4095.00
908.00	4095.00
909.00	4095.00
910.00	4095.00
911.00	4095.00
912.00	4095.00
913.00	4095.00
914.00	4095.00
915.00	4095.00
916.00	4095.00
917.00	4095.00
918.00	4095.00
919.00	4095.00
920.00	4095.00
921.00	4095.00
922.00	4095.00
923.00	4095.00
924.00	4095.00
925.00	4095.00
926.00	4095.00
927.00	4095.00
928.00	4095.00
929.00	4095.00
930.00	4095.00
931.00	4095.00
932.00	4095.00
933.00	4095.00
934.00	4095.00
935.00	4095.00
936.00	4095.00
937.00	4095.00
938.00	4095.00
939.00	4095.00
940.00	4095.00
941.00	4095.00
942.00	4095.00
943.00	4095.00
944.00	4095.00
945.00	4095.00
946.00	4095.00
947.00	4095.00
948.00	4095.00
949.00	4095.00
950.00	4095.00
951.00	4095.00
952.00	4095.00
953.00	4095.00
954.00	4095.00
955.00	4095.00
956.00	4095.00
957.00	4095.00
958.00	4095.00
959.00	4095.00
960.00	4095.00
961.00	4095.00
962.00	4095.00
963.00	4095.00
964.00	4095.00
965.00	4095.00
966.00	4095.00
967.00	4095.00
968.00	4095.00
969.00	4095.00
970.00	4095.00
971.00	4095.00
972.00	4095.00
973.00	4095.00
974.00	4095.00
975.00	4095.00
976.00	4095.00
977.00	4095.00
978.00	4095.00
979.00	4095.00
980.00	4095.00
981.00	4095.00
982.00	4095.00
983.00	4095.00
984.00	4095.00
985.00	4095.00
986.00	4095.00
987.00	4095.00
988.00	4095.00
989.00	4095.00
990.00	4095.00
991.00	4095.00
992.00	4095.00
993.00	4095.00
994.00	4095.00
995.00	4095.00
996.00	4095.00
997.00	4095.00
998.00	4095.00
999.00	4095.00
1000.00	4095.00
1001.00	4095.00
1002.00	4095.00
1003.00	4095.00
1004.00	4095.00
1005.00	4095.00
1006.00	4095.00
1007.00	4095.00
1008.00	4095.00
1009.00	4095.00
1010.00	4095.00
1011.00	4095.00
1012.00	4095.00
1013.00	4095.00
1014.00	4095.00
1015.00	4095.00
1016.00	4095.00
1017.00	4095.00
1018.00	4095.00
1019.00	4095.00
1020.00	4095.00
1021.00	4095.00
1022.00	4095.00
1023.00	4095.00
1024.00	4095.00
1025.00	4095.00
1026.00	4095.00
1027.00	4095.00
1028.00	4095.00
1029.00	4095.00
1030.00	4095.00
1031.00	4095.00
1032.00	4095.00
1033.00	4095.00
1034.00	4095.00
1035.00	4095.00
1036.00	4095.00
1037.00	4095.00
1038.00	4095.00
1039.00	4095.00
1040.00	4095.00
1041.00	4095.00
1042.00	4095.00
1043.00	4095.00
1044.00	4095.00
1045.00	4095.00
1046.00	4095.00
1047.00	4095.00
1048.00	4095.00
1049.00	4095.00
1050.00	4095.00
1051.00	4095.00
1052.00	4095.00
1053.00	4095.00
1054.00	4095.00
1055.00	4095.00
1056.00	4095.00
1057.00	4095.00
1058.00	4095.00
1059.00	4095.00
1060.00	4095.00
1061.00	4095.00
1062.00	4095.00
1063.00	4095.00
1064.00	4095.00
1065.00	4095.00
1066.00	4095.00
1067.00	4095.00
1068.00	4095.00
1069.00	4095.00
1070.00	4095.00
1071.00	4095.00
1072.00	4095.00
1073.00	4095.00
1074.00	4095.00
1075.00	4095.00
1076.00	4095.00
1077.00	4095.00
1078.00	4095.00
1079.00	4095.00
1080.00	4095.00
1081.00	4095.00
1082.00	4095.00
1083.00	4095.00
1084.00	4095.00
1085.00	4095.00
1086.00	4095.00
1087.00	4095.00
1088.00	4095.00
1089.00	4095.00
1090.00	4095.00
1091.00	4095.00
1092.00	4095.00
1093.00	4095.00
1094.00	4095.00
1095.00	4095.00
1096.00	4095.00
1097.00	4095.00
1098.00	4095.00
1099.00	4095.00
1100.00	4095.00
1101.00	4095.00
1102.00	4095.00
1103.00	4095.00
1104.00	4095.00
1105.00	4095.00
1106.00	4095.00
1107.00	4095.00
1108.00	4095.00
1109.00	4095.00
1110.00	4095.00
1111.00	4095.00
1112.00	4095.00
1113.00	4095.00
1114.00	4095.00
1115.00	4095.00
1116.00	4095.00
1117.00	4095.00
1118.00	4095.00
1119.00	4095.00
1120.00	4095.00
1121.00	4095.00
1122.00	4095.00
1123.00	4095.00
1124.00	4095.00
1125.00	4095.00
1126.00	4095.00
1127.00	4095.00
1128.00	4095.00
1129.00	4095.00
1130.00	4095.00
1131.00	4095.00
1132.00	4095.00
1133.00	4095.00
1134.00	4095.00
1135.00	4095.00
1136.00	4095.00
1137.00	4095.00
1138.00	4095.00
1139.00	4095.00
1140.00	4095.00
1141.00	4095.00
1142.00	4095.00
1143.00	4095.00
1144.00	4095.00
1145.00	4095.00
1146.00	4095.00
1147.00	4095.00
1148.00	4095.00
1149.00	4095.00
1150.00	4095.00
1151.00	4095.00
1152.00	4095.00
1153.00	4095.00
1154.00	4095.00
1155.00	4095.00
1156.00	4095.00
1157.00	4095.00
1158.00	4095.00
1159.00	4095.00
1160.00	4095.00
1161.00	4095.00
1162.00	4095.00
1163.00	4095.00
1164.00	4095.00
1165.00	4095.00
1166.00	4095.00
1167.00	4095.00
1168.00	4095.00
1169.00	4095.00
1170.00	4095.00
1171.00	4095.00
1172.00	4095.00
1173.00	4095.00
1174.00	4095.00
1175.00	4095.00
1176.00	4095.00
1177.00	4095.00
1178.00	4095.00
1179.00	4095.00
1180.00	4095.00
1181.00	4095.00
1182.00	4095.00
1183.00	4095.00
1184.00	4095.00
1185.00	4095.00
1186.00	4095.00
1187.00	4095.00
1188.00	4095.00
1189.00	4095.00
1190.00	4095.00
1191.00	4095.00
1192.00	4095.00
1193.00	4095.00
1194.00	4095.00
1195.00	4095.00
1196.00	4095.00
1197.00	4095.00
1198.00	4095.00
1199.00	4095.00
1200.00	4095.00
1201.00	4095.00
1202.00	4095.00
1203.00	4095.00
1204.00	4095.00
1205.00	4095.00
1206.00	4095.00
1207.00	4095.00
1208.00	4095.00
1209.00	4095.00
1210.00	4095.00
1211.00	4095.00
1212.00	4095.00
1213.00	4095.00
1214.00	4095.00
1215.00	4095.00
1216.00	4095.00
1217.00	4095.00
1218.00	4095.00
1219.00	4095.00
1220.00	4095.00
1221.00	4095.00
1222.00	4095.00
1223.00	4095.00
1224.00	4095.00
1225.00	4095.00
1226.00	4095.00
1227.00	4095.00
1228.00	4095.00
1229.00	4095.00
1230.00	4095.00
1231.00	4095.00
1232.00	4095.00
1233.00	4095.00
1234.00	4095.00
1235.00	4095.00
1236.00	4095.00
1237.00	4095.00
1238.00	4095.00
1239.00	4095.00
1240.00	4095.00
1241.00	4095.00
1242.00	4095.00
1243.00	4095.00
1244.00	4095.00
1245.00	4095.00
1246.00	4095.00
1247.00	4095.00
1248.00	4095.00
1249.00	4095.00
1250.00	4095.00
1251.00	4095.00
1252.00	4095.00
1253.00	4095.00
1254.00	4095.00
1255.00	4095.00
1256.00	4095.00
1257.00	4095.00
1258.00	4095.00
1259.00	4095.00
1260.00	4095.00
1261.00	4095.00
1262.00	4095.00
1263.00	4095.00
1264.00	4095.00
1265.00	4095.00
1266.00	4095.00
1267.00	4095.00
1268.00	4095.00
1269.00	4095.00
1270.00	4095.00
1271.00	4095.00
1272.00	4095.00
1273.00	4095.00
1274.00	4095.00
1275.00	4095.00
1276.00	4095.00
1277.00	4095.00
1278.00	4095.00
1279.00	4095.00
1280.00	4095.00
1281.00	4095.00
1282.00	4095.00
1283.00	4095.00
1284.00	4095.00
1285.00	4095.00
1286.00	4095.00
1287.00	4095.00
1288.00	4095.00
1289.00	4095.00
1290.00	4095.00
1291.00	4095.00
1292.00	4095.00
1293.00	4095.00
1294.00	4095.00
1295.00	4095.00
1296.00	4095.00
1297.00	4095.00
1298.00	4095.00
